# E (eV)   ldos(E)   pdos(E)   
 -19.205  0.499E-03  0.499E-03
 -19.155  0.333E-02  0.333E-02
 -19.105  0.178E-01  0.178E-01
 -19.055  0.759E-01  0.759E-01
 -19.005  0.259E+00  0.259E+00
 -18.955  0.709E+00  0.709E+00
 -18.905  0.155E+01  0.155E+01
 -18.855  0.271E+01  0.271E+01
 -18.805  0.379E+01  0.379E+01
 -18.755  0.424E+01  0.424E+01
 -18.705  0.380E+01  0.380E+01
 -18.655  0.272E+01  0.272E+01
 -18.605  0.156E+01  0.156E+01
 -18.555  0.714E+00  0.714E+00
 -18.505  0.262E+00  0.262E+00
 -18.455  0.767E-01  0.767E-01
 -18.405  0.180E-01  0.180E-01
 -18.355  0.338E-02  0.338E-02
 -18.305  0.507E-03  0.507E-03
 -18.255  0.609E-04  0.609E-04
 -18.205  0.585E-05  0.585E-05
 -18.155  0.449E-06  0.449E-06
 -18.105  0.276E-07  0.276E-07
 -18.055  0.136E-08  0.136E-08
 -18.005  0.534E-10  0.534E-10
 -17.955  0.000E+00  0.000E+00
 -17.905  0.000E+00  0.000E+00
 -17.855  0.000E+00  0.000E+00
 -17.805  0.000E+00  0.000E+00
 -17.755  0.000E+00  0.000E+00
 -17.705  0.000E+00  0.000E+00
 -17.655  0.000E+00  0.000E+00
 -17.605  0.000E+00  0.000E+00
 -17.555  0.000E+00  0.000E+00
 -17.505  0.000E+00  0.000E+00
 -17.455  0.000E+00  0.000E+00
 -17.405  0.000E+00  0.000E+00
 -17.355  0.000E+00  0.000E+00
 -17.305  0.000E+00  0.000E+00
 -17.255  0.000E+00  0.000E+00
 -17.205  0.000E+00  0.000E+00
 -17.155  0.000E+00  0.000E+00
 -17.105  0.000E+00  0.000E+00
 -17.055  0.000E+00  0.000E+00
 -17.005  0.000E+00  0.000E+00
 -16.955  0.000E+00  0.000E+00
 -16.905  0.000E+00  0.000E+00
 -16.855  0.000E+00  0.000E+00
 -16.805  0.000E+00  0.000E+00
 -16.755  0.000E+00  0.000E+00
 -16.705  0.000E+00  0.000E+00
 -16.655  0.000E+00  0.000E+00
 -16.605  0.000E+00  0.000E+00
 -16.555  0.000E+00  0.000E+00
 -16.505  0.000E+00  0.000E+00
 -16.455  0.000E+00  0.000E+00
 -16.405  0.000E+00  0.000E+00
 -16.355  0.000E+00  0.000E+00
 -16.305  0.000E+00  0.000E+00
 -16.255  0.000E+00  0.000E+00
 -16.205  0.000E+00  0.000E+00
 -16.155  0.000E+00  0.000E+00
 -16.105  0.000E+00  0.000E+00
 -16.055  0.000E+00  0.000E+00
 -16.005  0.000E+00  0.000E+00
 -15.955  0.000E+00  0.000E+00
 -15.905  0.000E+00  0.000E+00
 -15.855  0.000E+00  0.000E+00
 -15.805  0.000E+00  0.000E+00
 -15.755  0.000E+00  0.000E+00
 -15.705  0.000E+00  0.000E+00
 -15.655  0.000E+00  0.000E+00
 -15.605  0.000E+00  0.000E+00
 -15.555  0.000E+00  0.000E+00
 -15.505  0.000E+00  0.000E+00
 -15.455  0.000E+00  0.000E+00
 -15.405  0.000E+00  0.000E+00
 -15.355  0.000E+00  0.000E+00
 -15.305  0.000E+00  0.000E+00
 -15.255  0.000E+00  0.000E+00
 -15.205  0.000E+00  0.000E+00
 -15.155  0.000E+00  0.000E+00
 -15.105  0.000E+00  0.000E+00
 -15.055  0.000E+00  0.000E+00
 -15.005  0.000E+00  0.000E+00
 -14.955  0.000E+00  0.000E+00
 -14.905  0.000E+00  0.000E+00
 -14.855  0.000E+00  0.000E+00
 -14.805  0.000E+00  0.000E+00
 -14.755  0.000E+00  0.000E+00
 -14.705  0.000E+00  0.000E+00
 -14.655  0.000E+00  0.000E+00
 -14.605  0.000E+00  0.000E+00
 -14.555  0.000E+00  0.000E+00
 -14.505  0.000E+00  0.000E+00
 -14.455  0.000E+00  0.000E+00
 -14.405  0.000E+00  0.000E+00
 -14.355  0.000E+00  0.000E+00
 -14.305  0.000E+00  0.000E+00
 -14.255  0.000E+00  0.000E+00
 -14.205  0.000E+00  0.000E+00
 -14.155  0.000E+00  0.000E+00
 -14.105  0.000E+00  0.000E+00
 -14.055  0.000E+00  0.000E+00
 -14.005  0.000E+00  0.000E+00
 -13.955  0.000E+00  0.000E+00
 -13.905  0.000E+00  0.000E+00
 -13.855  0.000E+00  0.000E+00
 -13.805  0.000E+00  0.000E+00
 -13.755  0.000E+00  0.000E+00
 -13.705  0.000E+00  0.000E+00
 -13.655  0.000E+00  0.000E+00
 -13.605  0.000E+00  0.000E+00
 -13.555  0.000E+00  0.000E+00
 -13.505  0.000E+00  0.000E+00
 -13.455  0.000E+00  0.000E+00
 -13.405  0.000E+00  0.000E+00
 -13.355  0.000E+00  0.000E+00
 -13.305  0.000E+00  0.000E+00
 -13.255  0.000E+00  0.000E+00
 -13.205  0.000E+00  0.000E+00
 -13.155  0.000E+00  0.000E+00
 -13.105  0.000E+00  0.000E+00
 -13.055  0.000E+00  0.000E+00
 -13.005  0.000E+00  0.000E+00
 -12.955  0.000E+00  0.000E+00
 -12.905  0.000E+00  0.000E+00
 -12.855  0.000E+00  0.000E+00
 -12.805  0.000E+00  0.000E+00
 -12.755  0.000E+00  0.000E+00
 -12.705  0.000E+00  0.000E+00
 -12.655  0.000E+00  0.000E+00
 -12.605  0.000E+00  0.000E+00
 -12.555  0.000E+00  0.000E+00
 -12.505  0.000E+00  0.000E+00
 -12.455  0.000E+00  0.000E+00
 -12.405  0.000E+00  0.000E+00
 -12.355  0.000E+00  0.000E+00
 -12.305  0.000E+00  0.000E+00
 -12.255  0.000E+00  0.000E+00
 -12.205  0.000E+00  0.000E+00
 -12.155  0.000E+00  0.000E+00
 -12.105  0.000E+00  0.000E+00
 -12.055  0.000E+00  0.000E+00
 -12.005  0.000E+00  0.000E+00
 -11.955  0.000E+00  0.000E+00
 -11.905  0.000E+00  0.000E+00
 -11.855  0.000E+00  0.000E+00
 -11.805  0.000E+00  0.000E+00
 -11.755  0.000E+00  0.000E+00
 -11.705  0.000E+00  0.000E+00
 -11.655  0.000E+00  0.000E+00
 -11.605  0.000E+00  0.000E+00
 -11.555  0.000E+00  0.000E+00
 -11.505  0.000E+00  0.000E+00
 -11.455  0.000E+00  0.000E+00
 -11.405  0.000E+00  0.000E+00
 -11.355  0.000E+00  0.000E+00
 -11.305  0.000E+00  0.000E+00
 -11.255  0.000E+00  0.000E+00
 -11.205  0.000E+00  0.000E+00
 -11.155  0.000E+00  0.000E+00
 -11.105  0.000E+00  0.000E+00
 -11.055  0.000E+00  0.000E+00
 -11.005  0.000E+00  0.000E+00
 -10.955  0.000E+00  0.000E+00
 -10.905  0.000E+00  0.000E+00
 -10.855  0.000E+00  0.000E+00
 -10.805  0.000E+00  0.000E+00
 -10.755  0.000E+00  0.000E+00
 -10.705  0.000E+00  0.000E+00
 -10.655  0.000E+00  0.000E+00
 -10.605  0.000E+00  0.000E+00
 -10.555  0.000E+00  0.000E+00
 -10.505  0.000E+00  0.000E+00
 -10.455  0.000E+00  0.000E+00
 -10.405  0.000E+00  0.000E+00
 -10.355  0.000E+00  0.000E+00
 -10.305  0.000E+00  0.000E+00
 -10.255  0.000E+00  0.000E+00
 -10.205  0.000E+00  0.000E+00
 -10.155  0.000E+00  0.000E+00
 -10.105  0.000E+00  0.000E+00
 -10.055  0.000E+00  0.000E+00
 -10.005  0.000E+00  0.000E+00
  -9.955  0.000E+00  0.000E+00
  -9.905  0.000E+00  0.000E+00
  -9.855  0.000E+00  0.000E+00
  -9.805  0.000E+00  0.000E+00
  -9.755  0.000E+00  0.000E+00
  -9.705  0.000E+00  0.000E+00
  -9.655  0.000E+00  0.000E+00
  -9.605  0.000E+00  0.000E+00
  -9.555  0.000E+00  0.000E+00
  -9.505  0.000E+00  0.000E+00
  -9.455  0.000E+00  0.000E+00
  -9.405  0.000E+00  0.000E+00
  -9.355  0.000E+00  0.000E+00
  -9.305  0.000E+00  0.000E+00
  -9.255  0.000E+00  0.000E+00
  -9.205  0.000E+00  0.000E+00
  -9.155  0.000E+00  0.000E+00
  -9.105  0.000E+00  0.000E+00
  -9.055  0.000E+00  0.000E+00
  -9.005  0.000E+00  0.000E+00
  -8.955  0.000E+00  0.000E+00
  -8.905  0.000E+00  0.000E+00
  -8.855  0.000E+00  0.000E+00
  -8.805  0.000E+00  0.000E+00
  -8.755  0.000E+00  0.000E+00
  -8.705  0.000E+00  0.000E+00
  -8.655  0.000E+00  0.000E+00
  -8.605  0.000E+00  0.000E+00
  -8.555  0.000E+00  0.000E+00
  -8.505  0.000E+00  0.000E+00
  -8.455  0.000E+00  0.000E+00
  -8.405  0.000E+00  0.000E+00
  -8.355  0.000E+00  0.000E+00
  -8.305  0.000E+00  0.000E+00
  -8.255  0.000E+00  0.000E+00
  -8.205  0.000E+00  0.000E+00
  -8.155  0.000E+00  0.000E+00
  -8.105  0.000E+00  0.000E+00
  -8.055  0.000E+00  0.000E+00
  -8.005  0.000E+00  0.000E+00
  -7.955  0.000E+00  0.000E+00
  -7.905  0.000E+00  0.000E+00
  -7.855  0.000E+00  0.000E+00
  -7.805  0.000E+00  0.000E+00
  -7.755  0.000E+00  0.000E+00
  -7.705  0.000E+00  0.000E+00
  -7.655  0.000E+00  0.000E+00
  -7.605  0.000E+00  0.000E+00
  -7.555  0.000E+00  0.000E+00
  -7.505  0.000E+00  0.000E+00
  -7.455  0.000E+00  0.000E+00
  -7.405  0.000E+00  0.000E+00
  -7.355  0.000E+00  0.000E+00
  -7.305  0.000E+00  0.000E+00
  -7.255  0.000E+00  0.000E+00
  -7.205  0.000E+00  0.000E+00
  -7.155  0.000E+00  0.000E+00
  -7.105  0.000E+00  0.000E+00
  -7.055  0.000E+00  0.000E+00
  -7.005  0.000E+00  0.000E+00
  -6.955  0.000E+00  0.000E+00
  -6.905  0.000E+00  0.000E+00
  -6.855  0.000E+00  0.000E+00
  -6.805  0.000E+00  0.000E+00
  -6.755  0.000E+00  0.000E+00
  -6.705  0.000E+00  0.000E+00
  -6.655  0.000E+00  0.000E+00
  -6.605  0.000E+00  0.000E+00
  -6.555  0.000E+00  0.000E+00
  -6.505  0.000E+00  0.000E+00
  -6.455  0.000E+00  0.000E+00
  -6.405  0.000E+00  0.000E+00
  -6.355  0.000E+00  0.000E+00
  -6.305  0.000E+00  0.000E+00
  -6.255  0.000E+00  0.000E+00
  -6.205  0.000E+00  0.000E+00
  -6.155  0.000E+00  0.000E+00
  -6.105  0.000E+00  0.000E+00
  -6.055  0.000E+00  0.000E+00
  -6.005  0.000E+00  0.000E+00
  -5.955  0.000E+00  0.000E+00
  -5.905  0.000E+00  0.000E+00
  -5.855  0.000E+00  0.000E+00
  -5.805  0.114E-11  0.114E-11
  -5.755  0.324E-10  0.324E-10
  -5.705  0.678E-09  0.678E-09
  -5.655  0.113E-07  0.113E-07
  -5.605  0.153E-06  0.153E-06
  -5.555  0.168E-05  0.168E-05
  -5.505  0.150E-04  0.150E-04
  -5.455  0.109E-03  0.109E-03
  -5.405  0.645E-03  0.645E-03
  -5.355  0.312E-02  0.312E-02
  -5.305  0.124E-01  0.124E-01
  -5.255  0.402E-01  0.402E-01
  -5.205  0.107E+00  0.107E+00
  -5.155  0.234E+00  0.234E+00
  -5.105  0.417E+00  0.417E+00
  -5.055  0.607E+00  0.607E+00
  -5.005  0.720E+00  0.720E+00
  -4.955  0.694E+00  0.694E+00
  -4.905  0.542E+00  0.542E+00
  -4.855  0.343E+00  0.343E+00
  -4.805  0.175E+00  0.175E+00
  -4.755  0.722E-01  0.722E-01
  -4.705  0.240E-01  0.240E-01
  -4.655  0.640E-02  0.640E-02
  -4.605  0.137E-02  0.137E-02
  -4.555  0.237E-03  0.237E-03
  -4.505  0.328E-04  0.328E-04
  -4.455  0.365E-05  0.365E-05
  -4.405  0.346E-06  0.346E-06
  -4.355  0.202E-06  0.202E-06
  -4.305  0.125E-05  0.125E-05
  -4.255  0.712E-05  0.712E-05
  -4.205  0.332E-04  0.332E-04
  -4.155  0.127E-03  0.127E-03
  -4.105  0.401E-03  0.401E-03
  -4.055  0.104E-02  0.104E-02
  -4.005  0.224E-02  0.224E-02
  -3.955  0.401E-02  0.401E-02
  -3.905  0.608E-02  0.608E-02
  -3.855  0.802E-02  0.802E-02
  -3.805  0.956E-02  0.956E-02
  -3.755  0.107E-01  0.107E-01
  -3.705  0.112E-01  0.112E-01
  -3.655  0.112E-01  0.112E-01
  -3.605  0.107E-01  0.107E-01
  -3.555  0.105E-01  0.105E-01
  -3.505  0.111E-01  0.111E-01
  -3.455  0.124E-01  0.124E-01
  -3.405  0.133E-01  0.133E-01
  -3.355  0.131E-01  0.131E-01
  -3.305  0.122E-01  0.122E-01
  -3.255  0.117E-01  0.117E-01
  -3.205  0.127E-01  0.127E-01
  -3.155  0.158E-01  0.158E-01
  -3.105  0.199E-01  0.199E-01
  -3.055  0.232E-01  0.232E-01
  -3.005  0.250E-01  0.250E-01
  -2.955  0.276E-01  0.276E-01
  -2.905  0.362E-01  0.362E-01
  -2.855  0.576E-01  0.576E-01
  -2.805  0.100E+00  0.100E+00
  -2.755  0.174E+00  0.174E+00
  -2.705  0.289E+00  0.289E+00
  -2.655  0.445E+00  0.445E+00
  -2.605  0.617E+00  0.617E+00
  -2.555  0.749E+00  0.749E+00
  -2.505  0.782E+00  0.782E+00
  -2.455  0.701E+00  0.701E+00
  -2.405  0.545E+00  0.545E+00
  -2.355  0.378E+00  0.378E+00
  -2.305  0.245E+00  0.245E+00
  -2.255  0.158E+00  0.158E+00
  -2.205  0.106E+00  0.106E+00
  -2.155  0.749E-01  0.749E-01
  -2.105  0.546E-01  0.546E-01
  -2.055  0.404E-01  0.404E-01
  -2.005  0.296E-01  0.296E-01
  -1.955  0.214E-01  0.214E-01
  -1.905  0.154E-01  0.154E-01
  -1.855  0.115E-01  0.115E-01
  -1.805  0.925E-02  0.925E-02
  -1.755  0.800E-02  0.800E-02
  -1.705  0.699E-02  0.699E-02
  -1.655  0.583E-02  0.583E-02
  -1.605  0.458E-02  0.458E-02
  -1.555  0.351E-02  0.351E-02
  -1.505  0.279E-02  0.279E-02
  -1.455  0.239E-02  0.239E-02
  -1.405  0.217E-02  0.217E-02
  -1.355  0.197E-02  0.197E-02
  -1.305  0.173E-02  0.173E-02
  -1.255  0.147E-02  0.147E-02
  -1.205  0.129E-02  0.129E-02
  -1.155  0.126E-02  0.126E-02
  -1.105  0.137E-02  0.137E-02
  -1.055  0.156E-02  0.156E-02
  -1.005  0.171E-02  0.171E-02
  -0.955  0.177E-02  0.177E-02
  -0.905  0.174E-02  0.174E-02
  -0.855  0.164E-02  0.164E-02
  -0.805  0.148E-02  0.148E-02
  -0.755  0.130E-02  0.130E-02
  -0.705  0.114E-02  0.114E-02
  -0.655  0.107E-02  0.107E-02
  -0.605  0.108E-02  0.108E-02
  -0.555  0.114E-02  0.114E-02
  -0.505  0.119E-02  0.119E-02
  -0.455  0.118E-02  0.118E-02
  -0.405  0.110E-02  0.110E-02
  -0.355  0.990E-03  0.990E-03
  -0.305  0.866E-03  0.866E-03
  -0.255  0.744E-03  0.744E-03
  -0.205  0.633E-03  0.633E-03
  -0.155  0.544E-03  0.544E-03
  -0.105  0.484E-03  0.484E-03
  -0.055  0.451E-03  0.451E-03
  -0.005  0.435E-03  0.435E-03
   0.045  0.418E-03  0.418E-03
   0.095  0.390E-03  0.390E-03
   0.145  0.349E-03  0.349E-03
   0.195  0.304E-03  0.304E-03
   0.245  0.261E-03  0.261E-03
   0.295  0.225E-03  0.225E-03
   0.345  0.198E-03  0.198E-03
   0.395  0.185E-03  0.185E-03
   0.445  0.189E-03  0.189E-03
   0.495  0.201E-03  0.201E-03
   0.545  0.213E-03  0.213E-03
   0.595  0.217E-03  0.217E-03
   0.645  0.215E-03  0.215E-03
   0.695  0.210E-03  0.210E-03
   0.745  0.202E-03  0.202E-03
   0.795  0.187E-03  0.187E-03
   0.845  0.165E-03  0.165E-03
   0.895  0.139E-03  0.139E-03
   0.945  0.115E-03  0.115E-03
   0.995  0.969E-04  0.969E-04
   1.045  0.851E-04  0.851E-04
   1.095  0.787E-04  0.787E-04
   1.145  0.764E-04  0.764E-04
   1.195  0.768E-04  0.768E-04
   1.245  0.773E-04  0.773E-04
   1.295  0.755E-04  0.755E-04
   1.345  0.708E-04  0.708E-04
   1.395  0.650E-04  0.650E-04
   1.445  0.608E-04  0.608E-04
   1.495  0.595E-04  0.595E-04
   1.545  0.607E-04  0.607E-04
   1.595  0.628E-04  0.628E-04
   1.645  0.643E-04  0.643E-04
   1.695  0.651E-04  0.651E-04
   1.745  0.666E-04  0.666E-04
   1.795  0.696E-04  0.696E-04
   1.845  0.738E-04  0.738E-04
   1.895  0.777E-04  0.777E-04
   1.945  0.808E-04  0.808E-04
   1.995  0.827E-04  0.827E-04
   2.045  0.833E-04  0.833E-04
   2.095  0.835E-04  0.835E-04
   2.145  0.849E-04  0.849E-04
   2.195  0.894E-04  0.894E-04
   2.245  0.971E-04  0.971E-04
   2.295  0.106E-03  0.106E-03
   2.345  0.114E-03  0.114E-03
   2.395  0.120E-03  0.120E-03
   2.445  0.126E-03  0.126E-03
   2.495  0.134E-03  0.134E-03
   2.545  0.144E-03  0.144E-03
   2.595  0.155E-03  0.155E-03
   2.645  0.164E-03  0.164E-03
   2.695  0.170E-03  0.170E-03
   2.745  0.173E-03  0.173E-03
   2.795  0.176E-03  0.176E-03
   2.845  0.180E-03  0.180E-03
   2.895  0.183E-03  0.183E-03
   2.945  0.181E-03  0.181E-03
   2.995  0.174E-03  0.174E-03
   3.045  0.165E-03  0.165E-03
   3.095  0.160E-03  0.160E-03
   3.145  0.162E-03  0.162E-03
   3.195  0.171E-03  0.171E-03
   3.245  0.184E-03  0.184E-03
   3.295  0.196E-03  0.196E-03
   3.345  0.201E-03  0.201E-03
   3.395  0.199E-03  0.199E-03
   3.445  0.189E-03  0.189E-03
   3.495  0.173E-03  0.173E-03
   3.545  0.154E-03  0.154E-03
   3.595  0.139E-03  0.139E-03
   3.645  0.136E-03  0.136E-03
   3.695  0.156E-03  0.156E-03
   3.745  0.211E-03  0.211E-03
   3.795  0.317E-03  0.317E-03
   3.845  0.475E-03  0.475E-03
   3.895  0.666E-03  0.666E-03
   3.945  0.848E-03  0.848E-03
   3.995  0.973E-03  0.973E-03
   4.045  0.101E-02  0.101E-02
   4.095  0.965E-03  0.965E-03
   4.145  0.850E-03  0.850E-03
   4.195  0.703E-03  0.703E-03
   4.245  0.562E-03  0.562E-03
   4.295  0.462E-03  0.462E-03
   4.345  0.422E-03  0.422E-03
   4.395  0.438E-03  0.438E-03
   4.445  0.489E-03  0.489E-03
   4.495  0.543E-03  0.543E-03
   4.545  0.577E-03  0.577E-03
   4.595  0.586E-03  0.586E-03
   4.645  0.592E-03  0.592E-03
   4.695  0.620E-03  0.620E-03
   4.745  0.673E-03  0.673E-03
   4.795  0.734E-03  0.734E-03
   4.845  0.787E-03  0.787E-03
   4.895  0.832E-03  0.832E-03
   4.945  0.883E-03  0.883E-03
   4.995  0.945E-03  0.945E-03
   5.045  0.101E-02  0.101E-02
   5.095  0.107E-02  0.107E-02
   5.145  0.112E-02  0.112E-02
   5.195  0.113E-02  0.113E-02
   5.245  0.111E-02  0.111E-02
   5.295  0.105E-02  0.105E-02
   5.345  0.972E-03  0.972E-03
   5.395  0.892E-03  0.892E-03
   5.445  0.836E-03  0.836E-03
   5.495  0.807E-03  0.807E-03
   5.545  0.785E-03  0.785E-03
   5.595  0.759E-03  0.759E-03
   5.645  0.747E-03  0.747E-03
   5.695  0.786E-03  0.786E-03
   5.745  0.902E-03  0.902E-03
   5.795  0.108E-02  0.108E-02
   5.845  0.125E-02  0.125E-02
   5.895  0.135E-02  0.135E-02
   5.945  0.131E-02  0.131E-02
   5.995  0.114E-02  0.114E-02
   6.045  0.908E-03  0.908E-03
   6.095  0.677E-03  0.677E-03
   6.145  0.486E-03  0.486E-03
   6.195  0.342E-03  0.342E-03
   6.245  0.242E-03  0.242E-03
   6.295  0.188E-03  0.188E-03
   6.345  0.181E-03  0.181E-03
   6.395  0.205E-03  0.205E-03
   6.445  0.245E-03  0.245E-03
   6.495  0.295E-03  0.295E-03
   6.545  0.362E-03  0.362E-03
   6.595  0.451E-03  0.451E-03
   6.645  0.544E-03  0.544E-03
   6.695  0.610E-03  0.610E-03
   6.745  0.635E-03  0.635E-03
   6.795  0.646E-03  0.646E-03
   6.845  0.694E-03  0.694E-03
   6.895  0.811E-03  0.811E-03
   6.945  0.971E-03  0.971E-03
   6.995  0.110E-02  0.110E-02
   7.045  0.114E-02  0.114E-02
   7.095  0.106E-02  0.106E-02
   7.145  0.890E-03  0.890E-03
   7.195  0.686E-03  0.686E-03
   7.245  0.508E-03  0.508E-03
   7.295  0.385E-03  0.385E-03
   7.345  0.308E-03  0.308E-03
   7.395  0.254E-03  0.254E-03
   7.445  0.211E-03  0.211E-03
   7.495  0.177E-03  0.177E-03
   7.545  0.158E-03  0.158E-03
   7.595  0.159E-03  0.159E-03
   7.645  0.191E-03  0.191E-03
   7.695  0.258E-03  0.258E-03
   7.745  0.360E-03  0.360E-03
   7.795  0.490E-03  0.490E-03
   7.845  0.641E-03  0.641E-03
   7.895  0.804E-03  0.804E-03
   7.945  0.967E-03  0.967E-03
   7.995  0.112E-02  0.112E-02
   8.045  0.123E-02  0.123E-02
   8.095  0.129E-02  0.129E-02
   8.145  0.128E-02  0.128E-02
   8.195  0.122E-02  0.122E-02
   8.245  0.115E-02  0.115E-02
   8.295  0.113E-02  0.113E-02
   8.345  0.114E-02  0.114E-02
   8.395  0.119E-02  0.119E-02
   8.445  0.125E-02  0.125E-02
   8.495  0.130E-02  0.130E-02
   8.545  0.131E-02  0.131E-02
   8.595  0.128E-02  0.128E-02
   8.645  0.127E-02  0.127E-02
   8.695  0.137E-02  0.137E-02
   8.745  0.156E-02  0.156E-02
   8.795  0.178E-02  0.178E-02
   8.845  0.192E-02  0.192E-02
   8.895  0.200E-02  0.200E-02
   8.945  0.210E-02  0.210E-02
   8.995  0.230E-02  0.230E-02
   9.045  0.259E-02  0.259E-02
   9.095  0.289E-02  0.289E-02
   9.145  0.313E-02  0.313E-02
   9.195  0.328E-02  0.328E-02
   9.245  0.330E-02  0.330E-02
   9.295  0.313E-02  0.313E-02
   9.345  0.275E-02  0.275E-02
   9.395  0.230E-02  0.230E-02
   9.445  0.212E-02  0.212E-02
   9.495  0.264E-02  0.264E-02
   9.545  0.422E-02  0.422E-02
   9.595  0.684E-02  0.684E-02
   9.645  0.999E-02  0.999E-02
   9.695  0.129E-01  0.129E-01
   9.745  0.153E-01  0.153E-01
   9.795  0.171E-01  0.171E-01
   9.845  0.181E-01  0.181E-01
   9.895  0.176E-01  0.176E-01
   9.945  0.149E-01  0.149E-01
   9.995  0.109E-01  0.109E-01
  10.045  0.699E-02  0.699E-02
  10.095  0.414E-02  0.414E-02
  10.145  0.239E-02  0.239E-02
  10.195  0.134E-02  0.134E-02
  10.245  0.700E-03  0.700E-03
  10.295  0.340E-03  0.340E-03
  10.345  0.192E-03  0.192E-03
  10.395  0.182E-03  0.182E-03
  10.445  0.231E-03  0.231E-03
  10.495  0.272E-03  0.272E-03
  10.545  0.264E-03  0.264E-03
  10.595  0.207E-03  0.207E-03
  10.645  0.131E-03  0.131E-03
  10.695  0.658E-04  0.658E-04
  10.745  0.266E-04  0.266E-04
  10.795  0.859E-05  0.859E-05
  10.845  0.222E-05  0.222E-05
  10.895  0.460E-06  0.460E-06
  10.945  0.761E-07  0.761E-07
  10.995  0.101E-07  0.101E-07
